Black Body Radiation Experiment Wed, Oct 19, 2022 11:01 AM
Sensor Position (Degrees)	Light Intensity (Volts)
0.00000	-0.06094
0.00000	-0.05852
0.00000	-0.06045
0.00000	-0.05949
0.00000	-0.06641
0.00000	-0.06593
0.00000	-0.06158
0.00000	-0.05884
0.00000	-0.06287
0.00000	-0.06496
0.00000	-0.06351
0.00000	-0.06206
0.00000	-0.06271
0.00000	-0.05900
0.00000	-0.06786
0.00000	-0.06351
0.00000	-0.05691
0.00000	-0.06110
0.00000	-0.06174
0.00000	-0.06512
0.00000	-0.06174
0.00000	-0.06367
0.00000	-0.06561
0.00000	-0.06545
0.00000	-0.06400
0.00000	-0.06222
0.00000	-0.05916
0.00000	-0.06029
0.00000	-0.06239
0.00000	-0.06045
0.00000	-0.06142
0.00000	-0.06657
0.00000	-0.05997
0.00000	-0.06335
0.00000	-0.06432
0.00000	-0.06142
0.00000	-0.06287
0.00000	-0.06287
0.00000	-0.06206
0.00000	-0.06013
0.00000	-0.06351
0.00000	-0.06351
0.00000	-0.06496
0.00000	-0.06190
0.00000	-0.06416
0.00000	-0.06448
0.00000	-0.06448
0.00000	-0.06545
0.00000	-0.06319
0.00000	-0.06094
0.00000	-0.06351
0.00000	-0.06190
0.00000	-0.06110
0.00000	-0.06480
0.01035	-0.06239
0.01035	-0.06335
0.01035	-0.06029
0.01035	-0.06013
0.02070	-0.06577
0.02070	-0.06464
0.04139	-0.06142
0.05174	-0.05916
0.07244	-0.06206
0.09313	-0.06351
0.11383	-0.06126
0.14487	-0.06367
0.17592	-0.06110
0.19662	-0.06448
0.21731	-0.06174
0.22766	-0.06255
0.22766	-0.06384
0.23801	-0.06561
0.24836	-0.06061
0.25870	-0.05788
0.26905	-0.05675
0.27940	-0.06061
0.28975	-0.06496
0.31045	-0.06319
0.33114	-0.06577
0.35184	-0.06271
0.38288	-0.06255
0.42428	-0.06303
0.45532	-0.05852
0.50706	-0.06255
0.54845	-0.06464
0.60020	-0.06190
0.64159	-0.06255
0.67263	-0.06303
0.71403	-0.06287
0.75542	-0.05868
0.79681	-0.05788
0.84855	-0.06061
0.88994	-0.06094
0.94169	-0.06029
0.99343	-0.06029
1.03482	-0.06222
1.06586	-0.06448
1.11761	-0.06287
1.15900	-0.06319
1.19004	-0.06496
1.23144	-0.06077
1.27283	-0.05804
1.31422	-0.06625
1.36596	-0.06561
1.40735	-0.06126
1.45910	-0.05933
1.51084	-0.06110
1.56258	-0.05965
1.59362	-0.06239
1.60397	-0.05900
1.60397	-0.05981
1.60397	-0.06045
1.60397	-0.06367
1.60397	-0.06206
1.60397	-0.06126
1.60397	-0.06029
1.60397	-0.06190
1.60397	-0.06400
1.60397	-0.06158
1.60397	-0.06110
1.60397	-0.06029
1.60397	-0.05900
1.60397	-0.05965
1.60397	-0.05868
1.60397	-0.06110
1.60397	-0.06174
1.60397	-0.05868
1.60397	-0.06239
1.60397	-0.06126
1.61432	-0.06206
1.62467	-0.05514
1.65571	-0.06480
1.69710	-0.06384
1.73850	-0.06480
1.77989	-0.05965
1.83163	-0.06061
1.86268	-0.06351
1.90407	-0.06287
1.93511	-0.06190
1.96616	-0.06480
1.98685	-0.06029
2.01790	-0.06190
2.05929	-0.06367
2.12138	-0.06174
2.17312	-0.05965
2.23521	-0.05965
2.30765	-0.06206
2.36974	-0.06174
2.43183	-0.05916
2.49392	-0.05836
2.54566	-0.05788
2.59740	-0.06126
2.62844	-0.05981
2.65949	-0.06045
2.69053	-0.06045
2.70088	-0.06077
2.72158	-0.05884
2.74227	-0.05965
2.75262	-0.05788
2.76297	-0.05739
2.77332	-0.05643
2.78366	-0.05659
2.80436	-0.06077
2.82506	-0.05884
2.84575	-0.06384
2.87680	-0.05788
2.91819	-0.05997
2.95958	-0.06190
3.00098	-0.05916
3.05272	-0.05997
3.12516	-0.06206
3.17690	-0.06432
3.25968	-0.06222
3.27003	-0.06239
3.36316	-0.06174
3.39421	-0.06174
3.47699	-0.05788
3.52873	-0.05916
3.61152	-0.06029
3.65291	-0.05852
3.74605	-0.06029
3.79779	-0.06287
3.85988	-0.06158
3.93231	-0.06094
3.98406	-0.06174
4.04614	-0.05997
4.11858	-0.06303
4.23241	-0.06593
4.34624	-0.06351
4.47042	-0.06174
4.58425	-0.05900
4.69808	-0.06174
4.79121	-0.06142
4.88435	-0.05852
4.98783	-0.06287
5.10166	-0.06013
5.20514	-0.05997
5.30862	-0.05933
5.41211	-0.05965
5.51559	-0.06094
5.60872	-0.05933
5.70186	-0.05691
5.79499	-0.05997
5.87778	-0.05997
5.97091	-0.06013
6.04335	-0.05981
6.10544	-0.05916
6.16752	-0.05884
6.21927	-0.05771
6.28136	-0.05852
6.34344	-0.05691
6.39519	-0.05739
6.45727	-0.06287
6.51936	-0.05900
6.59180	-0.06094
6.66424	-0.06432
6.74702	-0.05933
6.81946	-0.06319
6.90225	-0.06094
6.98503	-0.06061
7.06782	-0.06110
7.16095	-0.05691
7.25409	-0.06335
7.33687	-0.06110
7.43000	-0.05691
7.51279	-0.05675
7.59558	-0.05755
7.67836	-0.06029
7.75080	-0.05755
7.82324	-0.05755
7.87498	-0.06013
7.91637	-0.06464
7.98881	-0.05965
8.05090	-0.05884
8.11299	-0.05836
8.17507	-0.06158
8.24751	-0.06319
8.30960	-0.06174
8.39239	-0.05997
8.47517	-0.05981
8.56831	-0.06029
8.65109	-0.06222
8.73388	-0.05675
8.82701	-0.06432
8.90980	-0.06045
8.99258	-0.05900
9.08572	-0.05933
9.16850	-0.06222
9.24094	-0.06239
9.32372	-0.05771
9.40651	-0.05562
9.46860	-0.05916
9.54104	-0.05852
9.61347	-0.05691
9.68591	-0.05900
9.75835	-0.05659
9.84113	-0.05804
9.92392	-0.05836
10.01705	-0.05755
10.08949	-0.05804
10.17228	-0.05981
10.24471	-0.05949
10.31715	-0.06061
10.41029	-0.05546
10.48272	-0.05449
10.56551	-0.06158
10.66899	-0.05852
10.75178	-0.06013
10.82421	-0.05739
10.88630	-0.05707
10.95874	-0.05788
11.01048	-0.05981
11.07257	-0.05417
11.12431	-0.05562
11.17605	-0.05659
11.21744	-0.06142
11.25884	-0.06061
11.28988	-0.05916
11.33127	-0.05916
11.36232	-0.05933
11.39336	-0.05820
11.42441	-0.06126
11.44510	-0.05562
11.47615	-0.05739
11.50719	-0.05788
11.54859	-0.05949
11.58998	-0.05949
11.62102	-0.06077
11.64172	-0.05997
11.68311	-0.05820
11.73485	-0.05916
11.78660	-0.05771
11.83834	-0.06110
11.87973	-0.05610
11.93147	-0.05755
11.99356	-0.05836
12.05565	-0.06061
12.11774	-0.06190
12.19018	-0.06077
12.27296	-0.05788
12.35575	-0.06287
12.42818	-0.06174
12.51097	-0.05610
12.60410	-0.06158
12.67654	-0.05594
12.74898	-0.05626
12.83176	-0.05965
12.90420	-0.05900
12.95594	-0.05562
12.99733	-0.05755
13.03873	-0.05336
13.08012	-0.05965
13.12151	-0.05852
13.14221	-0.05788
13.17325	-0.06077
13.20430	-0.06319
13.23534	-0.05804
13.30778	-0.05884
13.33882	-0.05675
13.36987	-0.05594
13.41126	-0.06029
13.46300	-0.05385
13.50440	-0.05884
13.56649	-0.05820
13.60788	-0.05578
13.66997	-0.05739
13.73206	-0.05755
13.78380	-0.05675
13.85623	-0.05836
13.91832	-0.05336
13.98041	-0.05771
14.03215	-0.05949
14.07355	-0.05594
14.12529	-0.05675
14.16668	-0.05030
14.20807	-0.05997
14.23912	-0.05143
14.25981	-0.05804
14.29086	-0.05578
14.30121	-0.05401
14.33225	-0.05965
14.35295	-0.05852
14.37364	-0.05868
14.40469	-0.06094
14.42539	-0.05965
14.44608	-0.05546
14.47713	-0.05320
14.50817	-0.05788
14.54956	-0.05594
14.59096	-0.05465
14.62200	-0.05997
14.65305	-0.06061
14.69444	-0.05723
14.72548	-0.05788
14.74618	-0.05739
14.77722	-0.05643
14.80827	-0.05755
14.82897	-0.05755
14.86001	-0.05900
14.88071	-0.05659
14.90140	-0.05594
14.92210	-0.05916
14.95314	-0.05626
14.97384	-0.05788
14.98419	-0.05739
14.99454	-0.05755
15.00488	-0.06045
15.01523	-0.06013
15.01523	-0.05433
15.01523	-0.05626
15.01523	-0.05578
15.01523	-0.05659
15.01523	-0.05723
15.01523	-0.05739
15.01523	-0.05691
15.01523	-0.05868
15.01523	-0.05562
15.01523	-0.05610
15.01523	-0.05562
15.02558	-0.05884
15.02558	-0.05804
15.02558	-0.05836
15.03593	-0.05981
15.04628	-0.05723
15.05663	-0.05465
15.07732	-0.05578
15.09802	-0.05691
15.12906	-0.05546
15.16011	-0.05643
15.18080	-0.05804
15.20150	-0.05626
15.23254	-0.05546
15.26359	-0.05369
15.28429	-0.05546
15.30498	-0.05320
15.32568	-0.05836
15.33603	-0.05771
15.35672	-0.05401
15.36707	-0.05175
15.38777	-0.05433
15.39812	-0.05836
15.39812	-0.05949
15.40846	-0.05610
15.40846	-0.05788
15.40846	-0.05739
15.40846	-0.05675
15.40846	-0.05465
15.40846	-0.05965
15.40846	-0.05562
15.40846	-0.05143
15.40846	-0.05868
15.41881	-0.05739
15.41881	-0.05659
15.42916	-0.05336
15.42916	-0.05562
15.43951	-0.05788
15.44986	-0.05707
15.46020	-0.05417
15.48090	-0.05546
15.49125	-0.05578
15.50160	-0.05417
15.51195	-0.06110
15.53264	-0.05981
15.55334	-0.05771
15.58438	-0.05965
15.60508	-0.05626
15.63612	-0.05353
15.65682	-0.05353
15.67752	-0.05353
15.69821	-0.05707
15.71891	-0.05739
15.74995	-0.05820
15.78100	-0.05449
15.81204	-0.05498
15.83274	-0.05594
15.85344	-0.05530
15.86378	-0.05820
15.88448	-0.05707
15.89483	-0.05208
15.90518	-0.05755
15.91553	-0.05304
15.92587	-0.05095
15.93622	-0.05771
15.94657	-0.05481
15.94657	-0.05771
15.95692	-0.05272
15.95692	-0.05659
15.95692	-0.05997
15.95692	-0.05256
15.95692	-0.06013
15.96727	-0.05449
15.96727	-0.05933
15.97761	-0.05417
15.99831	-0.05755
16.01901	-0.05417
16.05005	-0.05771
16.08110	-0.05916
16.13284	-0.05949
16.17423	-0.05433
16.21562	-0.05739
16.26736	-0.05046
16.30876	-0.05594
16.35015	-0.05498
16.39154	-0.05433
16.43294	-0.05755
16.46398	-0.05498
16.49502	-0.05578
16.50537	-0.05916
16.51572	-0.06045
16.53642	-0.05788
16.54677	-0.05868
16.54677	-0.05546
16.55711	-0.05820
16.55711	-0.05320
16.55711	-0.05739
16.55711	-0.05240
16.55711	-0.05755
16.55711	-0.05755
16.55711	-0.05691
16.55711	-0.05626
16.55711	-0.05562
16.55711	-0.05755
16.55711	-0.05514
16.55711	-0.05417
16.55711	-0.05240
16.55711	-0.05755
16.55711	-0.05578
16.55711	-0.05610
16.55711	-0.05546
16.56746	-0.05546
16.56746	-0.05659
16.58816	-0.05530
16.60885	-0.06045
16.63990	-0.05578
16.67094	-0.05643
16.71234	-0.05643
16.74338	-0.05916
16.78477	-0.05578
16.81582	-0.05481
16.84686	-0.05498
16.88826	-0.05659
16.92965	-0.05401
16.97104	-0.05465
17.01243	-0.05691
17.04348	-0.05723
17.07452	-0.05723
17.09522	-0.05707
17.10557	-0.05804
17.11592	-0.05659
17.12626	-0.05643
17.14696	-0.05401
17.16766	-0.05659
17.18835	-0.05449
17.19870	-0.05836
17.22975	-0.05530
17.25044	-0.05481
17.29184	-0.05546
17.34358	-0.05401
17.37462	-0.05900
17.40567	-0.05659
17.42636	-0.05369
17.44706	-0.05530
17.47810	-0.05385
17.49880	-0.05546
17.52984	-0.05546
17.55054	-0.05594
17.56089	-0.05514
17.58159	-0.05820
17.60228	-0.05723
17.62298	-0.05804
17.65402	-0.05498
17.69542	-0.05626
17.73681	-0.05498
17.78855	-0.05465
17.85064	-0.05481
17.90238	-0.05288
17.95412	-0.05079
17.99551	-0.05127
18.04725	-0.05079
18.06795	-0.05336
18.09899	-0.05481
18.10934	-0.04966
18.11969	-0.04950
18.11969	-0.05079
18.11969	-0.05353
18.11969	-0.05063
18.11969	-0.04934
18.11969	-0.05046
18.11969	-0.05208
18.11969	-0.04708
18.11969	-0.04499
18.11969	-0.05240
18.11969	-0.04692
18.11969	-0.04966
18.11969	-0.05046
18.13004	-0.05014
18.14039	-0.05159
18.16108	-0.05079
18.18178	-0.05127
18.21283	-0.05127
18.24387	-0.04853
18.26457	-0.04837
18.30596	-0.05433
18.33700	-0.05014
18.37840	-0.05046
18.40944	-0.05143
18.44049	-0.04918
18.47153	-0.04612
18.49223	-0.05014
18.51292	-0.04547
18.53362	-0.04563
18.55432	-0.04756
18.57501	-0.04805
18.59571	-0.04370
18.62675	-0.04595
18.66815	-0.04515
18.70954	-0.04692
18.73023	-0.04756
18.75093	-0.04241
18.77163	-0.04386
18.80267	-0.04032
18.81302	-0.04112
18.83372	-0.03983
18.85441	-0.03951
18.87511	-0.03854
18.91650	-0.04032
18.98894	-0.03870
19.03033	-0.04080
19.07173	-0.03919
19.12347	-0.03452
19.15451	-0.03870
19.20625	-0.03822
19.22695	-0.03693
19.24764	-0.03725
19.26834	-0.03226
19.28904	-0.03339
19.30973	-0.03017
19.34078	-0.03226
19.38217	-0.03210
19.40287	-0.02968
19.43391	-0.02823
19.47531	-0.02694
19.50635	-0.02678
19.54774	-0.02614
19.57879	-0.02388
19.60983	-0.02598
19.65122	-0.02034
19.67192	-0.02646
19.73401	-0.01857
19.76505	-0.01696
19.80645	-0.02131
19.85819	-0.01164
19.89958	-0.01873
19.94097	-0.01406
19.97202	-0.01051
20.01341	-0.01293
20.05480	-0.00568
20.08585	-0.00794
20.12724	-0.00810
20.15829	-0.00520
20.19968	-0.00568
20.23072	-0.00810
20.27212	-0.00681
20.30316	-0.00310
20.33421	-0.00342
20.37560	0.00270
20.40664	0.00093
20.43769	0.00334
20.46873	0.00286
20.48943	-0.00052
20.49978	0.00044
20.52047	0.00431
20.54117	0.00415
20.56187	0.00318
20.58256	0.00350
20.59291	0.00399
20.61361	0.00769
20.63430	0.00721
20.66535	0.00624
20.71709	0.00656
20.74813	0.00866
20.77918	0.00850
20.82057	0.01043
20.87231	0.00946
20.94475	0.00979
20.99649	0.01011
21.05858	0.00624
21.09997	0.00817
21.14136	0.00850
21.17241	0.00769
21.19311	0.00979
21.22415	0.00721
21.25519	0.00672
21.27589	0.00656
21.29659	0.00205
21.31728	0.00350
21.33798	0.00544
21.36902	0.00157
21.40007	0.00721
21.44146	0.00576
21.47251	0.00125
21.51390	0.00238
21.54494	0.00093
21.58634	-0.00439
21.62773	-0.00616
21.66912	-0.00036
21.71052	-0.00278
21.74156	-0.00777
21.77260	-0.00504
21.80365	-0.00616
21.84504	-0.01035
21.86574	-0.01228
21.90713	-0.00745
21.92783	-0.01164
21.95887	-0.01293
21.98992	-0.01583
22.01061	-0.01535
22.04166	-0.01599
22.07270	-0.02243
22.09340	-0.01889
22.11410	-0.02211
22.14514	-0.01696
22.15549	-0.01825
22.17618	-0.02598
22.19688	-0.02018
22.20723	-0.02002
22.22793	-0.02211
22.23827	-0.02372
22.26932	-0.02856
22.31071	-0.02501
22.35210	-0.02727
22.40384	-0.02839
22.45559	-0.02856
22.49698	-0.03178
22.53837	-0.03532
22.60046	-0.03580
22.64185	-0.03742
22.69359	-0.03371
22.74534	-0.03081
22.78673	-0.03580
22.83847	-0.03758
22.87986	-0.03452
22.92125	-0.03580
22.95230	-0.03903
22.99369	-0.04338
23.03508	-0.04402
23.06613	-0.04483
23.10752	-0.04354
23.13857	-0.04563
23.16961	-0.04354
23.19031	-0.04467
23.22135	-0.04612
23.24205	-0.04644
23.27309	-0.04483
23.29379	-0.04595
23.31449	-0.04418
23.34553	-0.04338
23.38692	-0.04660
23.41797	-0.04773
23.45936	-0.05014
23.49041	-0.04386
23.53180	-0.04434
23.56284	-0.05240
23.59389	-0.04805
23.63528	-0.04901
23.66632	-0.04885
23.68702	-0.05256
23.71807	-0.04708
23.74911	-0.04869
23.78015	-0.05320
23.79050	-0.05143
23.80085	-0.05143
23.81120	-0.04805
23.82155	-0.04595
23.83190	-0.05095
23.84224	-0.04901
23.85259	-0.04934
23.86294	-0.05127
23.88364	-0.04918
23.89398	-0.05014
23.91468	-0.04805
23.93538	-0.04885
23.96642	-0.05240
23.98712	-0.05208
24.00781	-0.04982
24.02851	-0.05111
24.04921	-0.04756
24.08025	-0.04724
24.11130	-0.05208
24.14234	-0.04789
24.17339	-0.04579
24.20443	-0.05175
24.23548	-0.04547
24.26652	-0.04950
24.29756	-0.04885
24.32861	-0.04934
24.35965	-0.04628
24.38035	-0.04595
24.41139	-0.04998
24.43209	-0.04934
24.45279	-0.05046
24.48383	-0.04966
24.50453	-0.05143
24.53557	-0.04563
24.55627	-0.04982
24.56662	-0.05030
24.58731	-0.04885
24.60801	-0.04660
24.63905	-0.04595
24.67010	-0.04982
24.70114	-0.04756
24.73219	-0.04563
24.77358	-0.04821
24.81497	-0.04837
24.85637	-0.04612
24.89776	-0.04628
24.94950	-0.04660
25.00124	-0.04869
25.09438	-0.04789
25.14612	-0.05030
25.19786	-0.05191
25.23925	-0.04660
25.29099	-0.04612
25.32204	-0.05111
25.36343	-0.04660
25.41517	-0.04756
25.45656	-0.05095
25.50830	-0.05095
25.56004	-0.04756
25.60144	-0.05079
25.64283	-0.04402
25.68422	-0.04805
25.73596	-0.04773
25.79805	-0.04837
25.84979	-0.05240
25.90153	-0.04885
25.94293	-0.04821
25.99467	-0.04885
26.05676	-0.04950
26.10850	-0.04821
26.16024	-0.04756
26.21198	-0.04708
26.26372	-0.04612
26.31546	-0.05336
26.35686	-0.05014
26.40860	-0.04708
26.44999	-0.04612
26.49138	-0.04612
26.52243	-0.04773
26.54312	-0.04676
26.57417	-0.04740
26.59486	-0.04418
26.61556	-0.04789
26.63626	-0.04805
26.64660	-0.04644
26.65695	-0.04724
26.66730	-0.04515
26.67765	-0.04531
26.68800	-0.04805
26.69835	-0.04612
26.70869	-0.04805
26.72939	-0.04918
26.75009	-0.04966
26.78113	-0.05046
26.81218	-0.04499
26.83287	-0.05304
26.86392	-0.04805
26.90531	-0.04708
26.93635	-0.04789
26.97775	-0.04563
27.01914	-0.04821
27.06053	-0.04483
27.11227	-0.04499
27.15367	-0.04531
27.20541	-0.04644
27.25715	-0.04483
27.29854	-0.04692
27.33993	-0.04370
27.39168	-0.04595
27.42272	-0.04177
27.45376	-0.04402
27.48481	-0.04563
27.51585	-0.04531
27.54690	-0.04547
27.57794	-0.04322
27.60899	-0.04692
27.62968	-0.04821
27.66073	-0.04692
27.69177	-0.04547
27.71247	-0.04885
27.73317	-0.05030
27.75386	-0.04595
27.78491	-0.04660
27.80560	-0.04450
27.83665	-0.04595
27.86769	-0.04595
27.89874	-0.04434
27.92978	-0.04644
27.96083	-0.04531
27.98152	-0.04901
28.01257	-0.04708
28.04361	-0.04612
28.06431	-0.04563
28.09535	-0.04740
28.13675	-0.04740
28.14709	-0.04869
28.16779	-0.05191
28.18849	-0.04676
28.20918	-0.04386
28.21953	-0.04531
28.24023	-0.04418
28.26092	-0.04418
28.28162	-0.04789
28.29197	-0.04853
28.31266	-0.04805
28.33336	-0.04595
28.35406	-0.04676
28.38510	-0.04708
28.41615	-0.04467
28.45754	-0.04515
28.48858	-0.04370
28.52998	-0.04370
28.57137	-0.04837
28.60241	-0.04901
28.63346	-0.04612
28.67485	-0.04434
28.71624	-0.04128
28.75764	-0.04354
28.81973	-0.04305
28.88182	-0.04338
28.93356	-0.04515
29.01634	-0.04612
29.09913	-0.04386
29.17156	-0.04338
29.24400	-0.04483
29.30609	-0.04595
29.37853	-0.04193
29.44062	-0.04450
29.50271	-0.03999
29.56480	-0.04370
29.61654	-0.04338
29.65793	-0.04160
29.68897	-0.04595
29.72002	-0.04450
29.75106	-0.04821
29.78211	-0.04354
29.81315	-0.04032
29.83385	-0.04450
29.85455	-0.04579
29.87524	-0.04273
29.90629	-0.04160
29.92698	-0.04289
29.94768	-0.04257
29.96838	-0.04386
29.98907	-0.04273
30.02012	-0.04305
30.04081	-0.04354
30.06151	-0.04515
30.09255	-0.04160
30.12360	-0.04756
30.15464	-0.03983
30.17534	-0.04338
30.19604	-0.04418
30.20638	-0.04289
30.22708	-0.04144
30.24778	-0.04241
30.26847	-0.04450
30.30987	-0.04112
30.35126	-0.04305
30.39265	-0.04273
30.43404	-0.04209
30.48579	-0.03967
30.53753	-0.04128
30.57892	-0.04225
30.63066	-0.03999
30.67205	-0.04740
30.71345	-0.04096
30.76519	-0.04612
30.81693	-0.04096
30.86867	-0.04563
30.92041	-0.03935
30.98250	-0.04144
31.03424	-0.04692
31.08598	-0.04080
31.13772	-0.04080
31.17911	-0.04547
31.22051	-0.04241
31.26190	-0.04322
31.30329	-0.04724
31.34469	-0.04918
31.37573	-0.04418
31.41712	-0.04015
31.44817	-0.04386
31.47921	-0.04338
31.51026	-0.03903
31.54130	-0.04789
31.56200	-0.04322
31.58269	-0.04144
31.61374	-0.04209
31.63444	-0.04595
31.66548	-0.04740
31.68618	-0.04789
31.70687	-0.04805
31.72757	-0.04483
31.74827	-0.04467
31.78966	-0.04418
31.82070	-0.04740
31.85175	-0.04418
31.89314	-0.04756
31.92418	-0.04112
31.95523	-0.04370
31.99662	-0.04305
32.03802	-0.04257
32.06906	-0.04612
32.12080	-0.04547
32.15185	-0.04756
32.18289	-0.04563
32.22428	-0.04531
32.25533	-0.04386
32.28637	-0.04676
32.30707	-0.04499
32.32776	-0.04756
32.33811	-0.04483
32.35881	-0.04595
32.37951	-0.04950
32.41055	-0.04499
32.44159	-0.04708
32.48299	-0.04773
32.52438	-0.04515
32.58647	-0.05063
32.62786	-0.04402
32.67960	-0.04821
32.74169	-0.04837
32.79343	-0.04676
32.85552	-0.04740
32.91761	-0.04692
32.97970	-0.04950
33.04179	-0.04531
33.10388	-0.04773
33.16597	-0.04531
33.20736	-0.04676
33.23841	-0.04660
33.27980	-0.04289
33.31084	-0.04982
33.34189	-0.04885
33.36258	-0.04885
33.36258	-0.04692
33.37293	-0.04531
33.39363	-0.04612
33.41433	-0.04740
33.42467	-0.04450
33.43502	-0.04612
33.43502	-0.04434
33.45572	-0.04628
33.47641	-0.04467
33.51781	-0.04628
33.54885	-0.04402
33.55920	-0.05014
33.56955	-0.04579
33.57990	-0.04628
33.57990	-0.04708
33.59024	-0.04499
33.59024	-0.03999
33.59024	-0.04821
33.60059	-0.04402
33.60059	-0.04644
33.60059	-0.05224
33.60059	-0.04966
33.60059	-0.04338
33.61094	-0.04225
33.62129	-0.04950
33.63164	-0.04499
33.65233	-0.04740
33.67303	-0.04740
33.69373	-0.04724
33.72477	-0.04982
33.76616	-0.05079
33.79721	-0.04515
33.83860	-0.04434
33.87999	-0.04644
33.92139	-0.04644
33.98348	-0.04547
34.01452	-0.04499
34.05591	-0.04531
34.10765	-0.04354
34.16974	-0.04483
34.22148	-0.04563
34.27323	-0.04595
34.32497	-0.04160
34.36636	-0.04160
34.40775	-0.04595
34.44914	-0.04628
34.51123	-0.04305
34.55263	-0.04338
34.60437	-0.04289
34.65611	-0.04338
34.69750	-0.04499
34.73889	-0.04322
34.76994	-0.04241
34.79064	-0.04885
34.81133	-0.04483
34.82168	-0.04531
34.82168	-0.04386
34.83203	-0.04257
34.84238	-0.04595
34.84238	-0.04305
34.85272	-0.04692
34.86307	-0.04434
34.88377	-0.04225
34.89412	-0.04160
34.92516	-0.04450
34.97690	-0.04531
35.00795	-0.04160
35.02864	-0.04483
35.07004	-0.04628
35.12178	-0.04434
35.17352	-0.04354
35.22526	-0.04595
35.28735	-0.04144
35.34944	-0.03951
35.39083	-0.04386
35.43222	-0.04740
35.47362	-0.04193
35.51501	-0.04740
35.55640	-0.04402
35.57710	-0.04483
35.60814	-0.04338
35.63919	-0.04338
35.65988	-0.04241
35.68058	-0.04144
35.70128	-0.03935
35.73232	-0.04483
35.76337	-0.03935
35.78406	-0.04531
35.81511	-0.04354
35.84615	-0.04515
35.87720	-0.04531
35.91859	-0.04644
35.95998	-0.04209
36.00137	-0.04418
36.03242	-0.04322
36.07381	-0.04273
36.10486	-0.03967
36.14625	-0.04112
36.18764	-0.04370
36.22903	-0.04354
36.27043	-0.04338
36.31182	-0.04241
36.34286	-0.04531
36.38426	-0.04305
36.41530	-0.04193
36.45669	-0.04032
36.48774	-0.03951
36.51878	-0.04177
36.56018	-0.04257
36.59122	-0.04225
36.63261	-0.04241
36.67401	-0.04547
36.70505	-0.04193
36.73610	-0.04595
36.77749	-0.04370
36.80853	-0.04692
36.84993	-0.04644
36.90167	-0.04628
36.93271	-0.04499
36.98445	-0.04386
37.02585	-0.04257
37.06724	-0.04756
37.10863	-0.04450
37.16037	-0.04450
37.21211	-0.04450
37.24316	-0.04080
37.27420	-0.03903
37.31560	-0.04450
37.35699	-0.04354
37.38803	-0.04402
37.42943	-0.04467
37.46047	-0.04386
37.49151	-0.04128
37.51221	-0.03999
37.54326	-0.04612
37.57430	-0.04193
37.59500	-0.04338
37.61569	-0.04354
37.63639	-0.04628
37.66743	-0.04869
37.70883	-0.04563
37.73987	-0.04531
37.78126	-0.04305
37.81231	-0.04434
37.83300	-0.04370
37.85370	-0.04563
37.88475	-0.04209
37.91579	-0.04515
37.95718	-0.04177
37.98823	-0.03790
38.01927	-0.04708
38.05032	-0.04177
38.09171	-0.04128
38.11241	-0.04386
38.14345	-0.04209
38.16415	-0.04370
38.18484	-0.04547
38.20554	-0.04773
38.21589	-0.04225
38.23658	-0.04499
38.24693	-0.04563
38.25728	-0.03983
38.27798	-0.04418
38.28833	-0.04305
38.28833	-0.04305
38.29867	-0.04322
38.29867	-0.04080
38.29867	-0.04660
38.30902	-0.04112
38.31937	-0.04434
38.32972	-0.04724
38.34007	-0.04289
38.35041	-0.04547
38.37111	-0.04241
38.39181	-0.04708
38.42285	-0.04241
38.45390	-0.04209
38.49529	-0.04386
38.52633	-0.04628
38.55738	-0.04773
38.59877	-0.04579
38.62982	-0.04241
38.67121	-0.04612
38.70225	-0.05208
38.73330	-0.04740
38.76434	-0.04499
38.79539	-0.04515
38.82643	-0.04322
38.86782	-0.04273
38.88852	-0.04354
38.91957	-0.04628
38.94026	-0.04273
38.96096	-0.04257
38.99200	-0.04595
39.02305	-0.04805
39.04374	-0.04370
39.07479	-0.04676
39.11618	-0.04628
39.14723	-0.04515
39.17827	-0.04338
39.20932	-0.04273
39.25071	-0.04450
39.28175	-0.04273
39.32315	-0.04644
39.35419	-0.04241
39.38523	-0.04434
39.41628	-0.04144
39.45767	-0.03806
39.48872	-0.04128
39.50941	-0.04193
39.55081	-0.04209
39.60255	-0.04628
39.65429	-0.04177
39.69568	-0.04354
39.74742	-0.04177
39.80951	-0.04096
39.87160	-0.04483
39.92334	-0.04209
39.97508	-0.04177
40.00613	-0.04241
40.03717	-0.04483
40.05787	-0.04322
40.08891	-0.04064
40.11996	-0.04160
40.16135	-0.04064
40.19239	-0.04418
40.23379	-0.04354
40.27518	-0.03838
40.30622	-0.04450
40.34762	-0.04434
40.37866	-0.04064
40.43040	-0.04193
40.47179	-0.04273
40.52354	-0.04144
40.59597	-0.04322
40.65806	-0.04434
40.72015	-0.04257
40.78224	-0.04660
40.84433	-0.04322
40.90642	-0.04579
40.94781	-0.04273
40.98920	-0.04015
41.02025	-0.03709
41.06164	-0.04112
41.08234	-0.04160
41.09269	-0.03725
41.11338	-0.04193
41.12373	-0.04305
41.13408	-0.03854
41.14443	-0.04177
41.15478	-0.04032
41.16512	-0.04064
41.17547	-0.04096
41.18582	-0.04289
41.20652	-0.04096
41.22721	-0.04386
41.25826	-0.04434
41.27895	-0.03983
41.29965	-0.04160
41.32035	-0.04193
41.34104	-0.04241
41.37209	-0.04209
41.39278	-0.04354
41.42383	-0.04177
41.45487	-0.04289
41.47557	-0.04450
41.49627	-0.04305
41.51696	-0.04338
41.53766	-0.04193
41.56870	-0.04338
41.58940	-0.04273
41.62044	-0.04032
41.65149	-0.04499
41.68253	-0.04322
41.71358	-0.04273
41.75497	-0.04112
41.79636	-0.04563
41.84811	-0.04370
41.88950	-0.04096
41.93089	-0.04305
41.97228	-0.04338
42.02402	-0.04015
42.06542	-0.04531
42.10681	-0.04676
42.14820	-0.04370
42.18960	-0.04144
42.23099	-0.04128
42.28273	-0.04241
42.31377	-0.04015
42.35517	-0.04370
42.39656	-0.04048
42.43795	-0.04402
42.47935	-0.04257
42.51039	-0.04418
42.54143	-0.03903
42.56213	-0.03806
42.59318	-0.03983
42.61387	-0.04064
42.63457	-0.04322
42.66561	-0.04289
42.68631	-0.04241
42.71735	-0.04418
42.73805	-0.04225
42.77944	-0.04434
42.82084	-0.04370
42.87258	-0.04209
42.91397	-0.04048
42.96571	-0.04273
43.02780	-0.04483
43.08989	-0.04241
43.15198	-0.03983
43.21407	-0.03903
43.27616	-0.04724
43.32790	-0.04177
43.38999	-0.04032
43.45208	-0.04144
43.50382	-0.04209
43.56591	-0.04418
43.60730	-0.04209
43.65904	-0.04418
43.70043	-0.04096
43.75217	-0.04418
43.79357	-0.03999
43.83496	-0.04273
43.88670	-0.04032
43.93844	-0.04193
43.97983	-0.04483
44.03157	-0.04418
44.06262	-0.04370
44.09366	-0.04225
44.12471	-0.04483
44.16610	-0.04547
44.19715	-0.04080
44.23854	-0.04128
44.26958	-0.04450
44.30063	-0.04450
44.34202	-0.04048
44.37306	-0.04144
44.41446	-0.04144
44.45585	-0.04080
44.47655	-0.04209
44.50759	-0.04225
44.53864	-0.04032
44.56968	-0.04257
44.61107	-0.04160
44.65247	-0.04338
44.68351	-0.04064
44.71456	-0.04144
44.74560	-0.04499
44.76630	-0.04354
44.77664	-0.03774
44.77664	-0.04177
44.77664	-0.04177
44.77664	-0.03758
44.78699	-0.04338
44.78699	-0.04160
44.78699	-0.03725
44.80769	-0.04225
44.82839	-0.04467
44.84908	-0.03951
44.86978	-0.04112
44.90082	-0.04112
44.93187	-0.04193
44.95256	-0.04676
44.99396	-0.04547
45.02500	-0.04015
45.05605	-0.04305
45.08709	-0.04257
45.11814	-0.04160
45.14918	-0.03887
45.16988	-0.04322
45.19057	-0.04289
45.20092	-0.04144
45.20092	-0.04241
45.20092	-0.04273
45.21127	-0.04273
45.22162	-0.04402
45.23197	-0.03758
45.23197	-0.04128
45.24231	-0.03822
45.24231	-0.04096
45.24231	-0.04225
45.24231	-0.04048
45.24231	-0.03887
45.25266	-0.03742
45.26301	-0.04048
45.29405	-0.03919
45.33545	-0.03903
45.39754	-0.03999
45.48032	-0.04096
45.56311	-0.03532
45.64589	-0.03870
45.72868	-0.03693
45.81146	-0.03838
45.87355	-0.03919
45.94599	-0.03903
46.00808	-0.03967
46.08052	-0.03822
46.18400	-0.03854
46.26678	-0.03629
46.34957	-0.03983
46.41166	-0.04177
46.47375	-0.04160
46.53584	-0.03629
46.57723	-0.03774
46.61862	-0.04064
46.63932	-0.03951
46.67036	-0.04193
46.69106	-0.04064
46.72211	-0.03580
46.74280	-0.03564
46.76350	-0.03774
46.80489	-0.03661
46.85663	-0.04064
46.92907	-0.04338
47.02220	-0.03870
47.11534	-0.03790
47.18777	-0.04257
47.28091	-0.03532
47.36369	-0.03677
47.43613	-0.03532
47.51892	-0.03742
47.58101	-0.03887
47.65344	-0.04080
47.71553	-0.03983
47.73623	-0.03774
47.74658	-0.04096
47.75693	-0.03903
47.76727	-0.03709
47.79832	-0.04048
47.82936	-0.03999
47.88110	-0.03790
47.91215	-0.04305
47.94319	-0.03661
47.95354	-0.04241
47.95354	-0.04434
47.95354	-0.03983
47.95354	-0.03532
47.96389	-0.03693
47.97424	-0.04177
48.00528	-0.03903
48.03633	-0.04112
48.07772	-0.03983
48.11911	-0.04032
48.17085	-0.04080
48.25364	-0.03613
48.32608	-0.03613
48.39851	-0.03516
48.45025	-0.03548
48.54339	-0.03452
48.63652	-0.03742
48.71931	-0.03822
48.81244	-0.03613
48.89523	-0.03693
48.97801	-0.03709
49.07115	-0.03774
49.16428	-0.03693
49.24707	-0.03661
49.34020	-0.03758
49.41264	-0.04177
49.49542	-0.03838
49.56786	-0.03790
49.61960	-0.03887
49.68169	-0.03774
49.73343	-0.03645
49.78517	-0.03307
49.81622	-0.03983
49.85761	-0.03999
49.88865	-0.03935
49.93005	-0.03645
49.97144	-0.03887
50.01283	-0.03564
50.04388	-0.03983
50.07492	-0.03790
50.10597	-0.04064
50.13701	-0.03677
50.15771	-0.03870
50.17840	-0.03597
50.20945	-0.03806
50.25084	-0.03613
50.28188	-0.03580
50.32328	-0.03725
50.36467	-0.03774
50.41641	-0.03500
50.48885	-0.04193
50.56129	-0.03919
50.62338	-0.03484
50.70616	-0.04112
50.78895	-0.03967
50.88208	-0.04064
50.97521	-0.03677
51.06835	-0.03790
51.15113	-0.03725
51.25462	-0.03677
51.34775	-0.03516
51.43053	-0.03854
51.50297	-0.03967
51.56506	-0.03693
51.62715	-0.03597
51.68924	-0.03887
51.74098	-0.04193
51.79272	-0.03870
51.82377	-0.03580
51.86516	-0.03790
51.89620	-0.03742
51.91690	-0.03983
51.94794	-0.03693
51.97899	-0.03677
51.99969	-0.03307
52.02038	-0.03645
52.04108	-0.03564
52.07212	-0.03725
52.09282	-0.03774
52.11352	-0.03709
52.15491	-0.03484
52.19630	-0.03709
52.24804	-0.03822
52.29978	-0.03709
52.36187	-0.03629
52.42396	-0.04032
52.48605	-0.03774
52.56884	-0.03790
52.64127	-0.03629
52.71371	-0.03709
52.78615	-0.03838
52.83789	-0.03854
52.88963	-0.03645
52.93102	-0.03661
52.98276	-0.03790
53.03451	-0.03758
53.09659	-0.03516
53.15868	-0.03822
53.22077	-0.04032
53.29321	-0.04080
53.36565	-0.04177
53.41739	-0.04144
53.47948	-0.03790
53.54157	-0.03500
53.59331	-0.04048
53.65540	-0.03983
53.70714	-0.03645
53.75888	-0.03854
53.80027	-0.03564
53.84166	-0.03903
53.88306	-0.03597
53.92445	-0.04225
53.96584	-0.03854
53.99689	-0.03661
54.03828	-0.03387
54.07967	-0.04225
54.11072	-0.03806
54.14176	-0.03838
54.17281	-0.04128
54.21420	-0.03903
54.25559	-0.04032
54.30733	-0.03790
54.34873	-0.04048
54.39012	-0.04080
54.43151	-0.04112
54.48325	-0.03677
54.52465	-0.03323
54.56604	-0.04064
54.60743	-0.03935
54.64882	-0.03919
54.69022	-0.04080
54.73161	-0.03854
54.76265	-0.03597
54.77300	-0.03742
54.78335	-0.03870
54.80405	-0.03822
54.82474	-0.03806
54.85579	-0.04160
54.88683	-0.03725
54.90753	-0.03806
54.92822	-0.03983
54.94892	-0.03709
54.97997	-0.03838
55.01101	-0.03790
55.04206	-0.03661
55.07310	-0.03935
55.12484	-0.03742
55.16623	-0.03693
55.20763	-0.03419
55.23867	-0.04112
55.26972	-0.03903
55.30076	-0.03983
55.35250	-0.03645
55.39389	-0.03758
55.41459	-0.03967
55.44563	-0.03806
55.46633	-0.03935
55.48703	-0.03935
55.51807	-0.03870
55.53877	-0.03758
55.56981	-0.03613
55.60086	-0.04225
55.63190	-0.04015
55.67330	-0.03677
55.70434	-0.04177
55.74573	-0.04144
55.77678	-0.03887
55.81817	-0.04112
55.84921	-0.03951
55.89061	-0.03661
55.92165	-0.04418
55.95270	-0.03903
55.97339	-0.03983
56.00444	-0.03436
56.03548	-0.03677
56.06653	-0.03661
56.11827	-0.04193
56.15966	-0.03919
56.22175	-0.03677
56.27349	-0.03983
56.33558	-0.03999
56.39767	-0.04015
56.48045	-0.04128
56.56324	-0.04160
56.64603	-0.03806
56.71846	-0.03854
56.78055	-0.03854
56.83229	-0.03725
56.87369	-0.03790
56.92543	-0.04128
56.98752	-0.04209
57.03926	-0.04015
57.09100	-0.03661
57.13239	-0.03709
57.17378	-0.03887
57.21518	-0.03661
57.25657	-0.04064
57.30831	-0.03903
57.36005	-0.03983
57.42214	-0.03838
57.47388	-0.03887
57.52562	-0.03854
57.56701	-0.04128
57.61876	-0.04289
57.66015	-0.03709
57.70154	-0.03887
57.75328	-0.04015
57.80502	-0.03613
57.85676	-0.03806
57.88781	-0.03999
57.92920	-0.03387
57.96025	-0.03887
57.99129	-0.03597
58.02234	-0.04032
58.06373	-0.04032
58.09477	-0.03822
58.12582	-0.04450
58.15686	-0.04499
58.18791	-0.03967
58.22930	-0.04144
58.27069	-0.04273
58.32243	-0.03806
58.38452	-0.04177
58.44661	-0.03580
58.48800	-0.04096
58.51905	-0.03854
58.55009	-0.03887
58.59149	-0.04144
58.64323	-0.03532
58.70532	-0.03999
58.75706	-0.04354
58.79845	-0.03758
58.83984	-0.03677
58.88124	-0.03677
58.93298	-0.03806
58.98472	-0.03967
59.03646	-0.03903
59.08820	-0.03983
59.15029	-0.04032
59.20203	-0.04177
59.25377	-0.03919
59.29516	-0.03935
59.33656	-0.03677
59.37795	-0.03758
59.42969	-0.03806
59.49178	-0.03629
59.54352	-0.04064
59.59526	-0.03887
59.63665	-0.03999
59.66770	-0.03548
59.68840	-0.04305
59.71944	-0.03854
59.74014	-0.03935
59.75048	-0.04144
59.75048	-0.04241
59.76083	-0.04225
59.77118	-0.03725
59.79188	-0.03983
59.81257	-0.03822
59.82292	-0.03629
59.82292	-0.03887
59.82292	-0.03903
59.83327	-0.03790
59.83327	-0.03661
59.83327	-0.03822
59.83327	-0.03629
59.83327	-0.03597
59.83327	-0.03999
59.83327	-0.03693
59.83327	-0.03951
59.83327	-0.04096
59.83327	-0.03854
59.83327	-0.04273
59.83327	-0.03597
59.83327	-0.04209
59.84362	-0.03661
59.89536	-0.03725
59.95745	-0.03887
59.97814	-0.04160
59.98849	-0.04096
60.01954	-0.04225
60.11267	-0.03935
60.15406	-0.03629
60.20580	-0.03693
60.23685	-0.03999
60.31964	-0.04193
60.39207	-0.03774
60.45416	-0.03709
60.49555	-0.03967
60.55764	-0.03903
60.61973	-0.03838
60.67147	-0.03935
60.69217	-0.03790
60.70252	-0.03725
60.74391	-0.03564
60.77496	-0.03661
60.80600	-0.04193
60.80600	-0.04032
60.81635	-0.03822
60.82670	-0.03758
60.89913	-0.03693
60.96122	-0.03597
60.99227	-0.03822
61.01296	-0.03742
61.10610	-0.03677
61.18888	-0.03935
61.25097	-0.03452
61.29237	-0.03983
61.37515	-0.04015
61.46828	-0.04015
61.55107	-0.03919
61.60281	-0.03887
61.66490	-0.04015
61.74769	-0.04209
61.83047	-0.03677
61.89256	-0.03564
61.94430	-0.03693
62.00639	-0.03677
62.06848	-0.03532
62.12022	-0.04322
62.18231	-0.03580
62.23405	-0.03323
62.28579	-0.03645
62.33753	-0.03548
62.37893	-0.03774
62.42032	-0.03822
62.47206	-0.04193
62.52380	-0.03307
62.57554	-0.03838
62.62728	-0.03548
62.67902	-0.03532
62.73076	-0.03822
62.79285	-0.03758
62.85494	-0.03468
62.90668	-0.03403
62.95843	-0.03693
63.03086	-0.03774
63.09295	-0.03790
63.16539	-0.03452
63.21713	-0.03613
63.26887	-0.03564
63.31026	-0.03854
63.36200	-0.03597
63.41375	-0.03709
63.46549	-0.03919
63.50688	-0.03629
63.53792	-0.03693
63.57932	-0.03387
63.61036	-0.03580
63.65175	-0.03452
63.69315	-0.03935
63.73454	-0.03967
63.77593	-0.03516
63.80698	-0.03742
63.85872	-0.03178
63.90011	-0.03758
63.93116	-0.03210
63.97255	-0.03564
64.01394	-0.03822
64.04499	-0.04032
64.07603	-0.03838
64.11742	-0.03903
64.14847	-0.03661
64.17951	-0.03983
64.21056	-0.03967
64.25195	-0.03983
64.28299	-0.03709
64.31404	-0.03951
64.35543	-0.03822
64.40717	-0.03677
64.44857	-0.03580
64.50031	-0.03983
64.54170	-0.03500
64.58309	-0.03516
64.62448	-0.03580
64.66588	-0.03629
64.70727	-0.03387
64.74866	-0.03613
64.79006	-0.03661
64.83145	-0.03419
64.86249	-0.03597
64.91423	-0.03613
64.96598	-0.03597
65.01772	-0.03580
65.05911	-0.03709
65.10050	-0.03822
65.14189	-0.03822
65.19364	-0.03758
65.22468	-0.03742
65.28677	-0.03580
65.33851	-0.03226
65.37990	-0.03693
65.43164	-0.03806
65.49373	-0.03452
65.55582	-0.04015
65.61791	-0.03580
65.68000	-0.03725
65.73174	-0.03355
65.79383	-0.03629
65.86627	-0.03564
65.93871	-0.03822
66.00079	-0.03838
66.06288	-0.03870
66.13532	-0.03339
66.19741	-0.03500
66.23880	-0.03709
66.28020	-0.03452
66.31124	-0.03597
66.35263	-0.03548
66.39403	-0.03709
66.42507	-0.03854
66.46646	-0.03854
66.49751	-0.03838
66.51820	-0.03790
66.54925	-0.03629
66.58029	-0.03597
66.62169	-0.03661
66.65273	-0.03629
66.68378	-0.03452
66.72517	-0.03242
66.75621	-0.03436
66.81830	-0.03452
66.87004	-0.03693
66.92178	-0.03452
66.97353	-0.03661
67.04596	-0.03274
67.08736	-0.03967
67.13910	-0.03291
67.18049	-0.03645
67.22188	-0.03709
67.26327	-0.03242
67.29432	-0.03790
67.34606	-0.03548
67.37710	-0.03258
67.41850	-0.03452
67.45989	-0.03532
67.49093	-0.03758
67.52198	-0.03790
67.55302	-0.03597
67.57372	-0.03951
67.60477	-0.03725
67.62546	-0.03500
67.65651	-0.03854
67.68755	-0.03258
67.71860	-0.04096
67.74964	-0.03436
67.79103	-0.03532
67.84277	-0.03516
67.88417	-0.03516
67.93591	-0.03548
67.96695	-0.03500
68.02904	-0.03484
68.08078	-0.03387
68.13252	-0.03516
68.18426	-0.03419
68.23601	-0.03725
68.27740	-0.03645
68.32914	-0.03532
68.38088	-0.03548
68.42227	-0.03597
68.46367	-0.03452
68.50506	-0.03307
68.54645	-0.03903
68.58784	-0.03613
68.63958	-0.03661
68.68098	-0.03307
68.73272	-0.03725
68.77411	-0.03693
68.81550	-0.03935
68.85690	-0.03468
68.88794	-0.03645
68.91899	-0.03903
68.93968	-0.03355
68.96038	-0.03516
68.97073	-0.03838
68.98108	-0.03532
68.98108	-0.03113
68.98108	-0.03709
68.99142	-0.03677
69.00177	-0.03452
69.01212	-0.03516
69.03282	-0.03484
69.04316	-0.03548
69.06386	-0.03661
69.09491	-0.03870
69.12595	-0.03113
69.15699	-0.03709
69.18804	-0.03097
69.23978	-0.03419
69.28117	-0.03790
69.34326	-0.03564
69.40535	-0.03291
69.46744	-0.03194
69.53988	-0.03129
69.60197	-0.03323
69.65371	-0.03436
69.70545	-0.03629
69.75719	-0.03725
69.82963	-0.03436
69.88137	-0.03629
69.92276	-0.03709
69.96415	-0.03371
70.00555	-0.03629
70.04694	-0.03323
70.07798	-0.03178
70.09868	-0.03661
70.12972	-0.03452
70.16077	-0.03419
70.18147	-0.03597
70.20216	-0.03274
70.23321	-0.03903
70.25390	-0.03597
70.27460	-0.03452
70.30564	-0.03548
70.33669	-0.03291
70.35739	-0.03709
70.37808	-0.03452
70.40913	-0.03629
70.44017	-0.03774
70.46087	-0.03742
70.47122	-0.03468
70.48156	-0.03194
70.50226	-0.03629
70.51261	-0.03258
70.51261	-0.03613
70.51261	-0.03242
70.51261	-0.03194
70.52296	-0.03597
70.53330	-0.03774
70.55400	-0.03387
70.57470	-0.03242
70.59539	-0.03436
70.62644	-0.03436
70.64713	-0.03371
70.66783	-0.03162
70.69888	-0.03355
70.72992	-0.03468
70.76096	-0.03162
70.79201	-0.03629
70.83340	-0.03597
70.87480	-0.03452
70.90584	-0.03355
70.94723	-0.03097
70.99897	-0.03452
71.04037	-0.03516
71.09211	-0.03162
71.12315	-0.03194
71.17489	-0.03548
71.22663	-0.03564
71.28872	-0.03436
71.34046	-0.03436
71.38186	-0.03387
71.41290	-0.03129
71.45429	-0.03597
71.48534	-0.03613
71.49569	-0.03258
71.50604	-0.03387
71.52673	-0.03709
71.55778	-0.03387
71.57847	-0.03146
71.59917	-0.03323
71.61987	-0.03387
71.64056	-0.03355
71.67161	-0.03323
71.69230	-0.03307
71.72335	-0.03307
71.75439	-0.03113
71.77509	-0.03081
71.79578	-0.03484
71.82683	-0.03291
71.85787	-0.03468
71.88892	-0.03516
71.93031	-0.03387
71.96136	-0.03307
71.99240	-0.03033
72.03379	-0.03355
72.07519	-0.03564
72.12693	-0.03194
72.16832	-0.03258
72.22006	-0.03371
72.26145	-0.03242
72.31319	-0.03097
72.36494	-0.03629
72.41668	-0.03065
72.46842	-0.03403
72.53051	-0.03371
72.59260	-0.03323
72.65468	-0.03709
72.72712	-0.03419
72.78921	-0.03307
72.85130	-0.03242
72.90304	-0.03291
72.97548	-0.03242
73.04792	-0.03709
73.13070	-0.03403
73.21349	-0.03146
73.29627	-0.03419
73.36871	-0.03226
73.44115	-0.03146
73.51359	-0.03516
73.57567	-0.03371
73.63776	-0.03194
73.68950	-0.03436
73.73090	-0.03001
73.76194	-0.03371
73.79299	-0.03307
73.82403	-0.03274
73.85508	-0.03097
73.88612	-0.03226
73.91716	-0.03178
73.95856	-0.03339
73.97925	-0.03210
73.99995	-0.03484
74.03099	-0.03146
74.06204	-0.03387
74.09308	-0.03065
74.13448	-0.02920
74.17587	-0.03355
74.21726	-0.02952
74.26900	-0.03274
74.32074	-0.03291
74.36214	-0.03017
74.41388	-0.03645
74.45527	-0.03419
74.48632	-0.03419
74.52771	-0.03065
74.55875	-0.03226
74.61049	-0.03307
74.66223	-0.03500
74.71398	-0.03371
74.76572	-0.03548
74.81746	-0.02968
74.87955	-0.03452
74.95198	-0.03339
75.01407	-0.03178
75.06581	-0.03146
75.11756	-0.03403
75.15895	-0.03274
75.22104	-0.02936
75.28313	-0.02968
75.34522	-0.02888
75.41765	-0.03564
75.46939	-0.03323
75.52114	-0.03194
75.56253	-0.03113
75.60392	-0.02952
75.64531	-0.03242
75.68671	-0.03484
75.71775	-0.03065
75.73845	-0.03355
75.76949	-0.03081
75.80054	-0.02952
75.83158	-0.03129
75.84193	-0.03291
75.87297	-0.03468
75.90402	-0.03194
75.94541	-0.02968
75.98680	-0.03081
76.02820	-0.03242
76.05924	-0.03516
76.09029	-0.02791
76.12133	-0.03033
76.16272	-0.03580
76.20412	-0.03097
76.24551	-0.03484
76.29725	-0.03146
76.35934	-0.03274
76.41108	-0.03274
76.46282	-0.03274
76.52491	-0.03001
76.56630	-0.03097
76.57665	-0.03403
76.63874	-0.03001
76.69048	-0.02968
76.73187	-0.03371
76.78362	-0.02888
76.81466	-0.03178
76.84570	-0.03113
76.88710	-0.02984
76.91814	-0.03097
76.95953	-0.02839
77.00093	-0.03081
77.04232	-0.03307
77.09406	-0.02888
77.15615	-0.02872
77.21824	-0.02952
77.29068	-0.02823
77.34242	-0.02662
77.41486	-0.02388
77.46660	-0.02598
77.49764	-0.02404
77.54938	-0.02582
77.61147	-0.02243
77.66321	-0.02356
77.71495	-0.02421
77.74600	-0.02147
77.79774	-0.02308
77.84948	-0.02066
77.89087	-0.02421
77.92192	-0.02549
77.95296	-0.02614
77.98401	-0.03049
78.01505	-0.02775
78.05644	-0.02888
78.07714	-0.03049
78.09784	-0.02839
78.12888	-0.03210
78.13923	-0.03307
78.15993	-0.03307
78.19097	-0.03484
78.21167	-0.02872
78.24271	-0.03146
78.28410	-0.03484
78.31515	-0.03355
78.33584	-0.02968
78.36689	-0.03291
78.39793	-0.03178
78.43933	-0.03355
78.49107	-0.03387
78.53246	-0.03500
78.58420	-0.03419
78.63594	-0.03097
78.71873	-0.03532
78.79117	-0.03065
78.86360	-0.03339
78.92569	-0.03065
78.99813	-0.03307
79.06022	-0.02936
79.12231	-0.02856
79.16370	-0.03049
79.20509	-0.03162
79.23614	-0.02856
79.24649	-0.03323
79.27753	-0.03291
79.31892	-0.02614
79.34997	-0.03452
79.38101	-0.03178
79.39136	-0.03291
79.41206	-0.03258
79.43275	-0.03291
79.44310	-0.03516
79.45345	-0.03081
79.47415	-0.03371
79.48449	-0.03242
79.49484	-0.03452
79.49484	-0.03693
79.50519	-0.03146
79.51554	-0.03210
79.52589	-0.03129
79.52589	-0.03387
79.52589	-0.03049
79.53624	-0.03291
79.55693	-0.03274
79.56728	-0.03339
79.58798	-0.03355
79.59832	-0.03129
79.61902	-0.03146
79.63972	-0.03484
79.67076	-0.03371
79.71215	-0.03049
79.74320	-0.03548
79.77424	-0.03113
79.79494	-0.03645
79.82598	-0.03387
79.85703	-0.03194
79.87773	-0.03436
79.92947	-0.02904
79.98121	-0.02759
80.04330	-0.03387